# WL(nm)    Flux(ergs/cm**2/s/nm)  # binned and reconstructed from V. Bourrier et al. 2020 "MOVES III. Simultaneous X-ray and ultraviolet observations unveiling the variable environment of the hot Jupiter HD 189733b"
1.679     2.1090E+05
1.839     1.0335E+05
1.999     3.6219E+04
2.159     1.1277E+05
2.319     3.2563E+04
2.479     3.8940E+04
2.639     3.1590E+04
2.799     3.5033E+04
2.959     3.0548E+04
3.119     3.1391E+04
3.279     3.5238E+04
3.439     5.1184E+04
3.599     3.7943E+04
3.759     2.4105E+04
3.919     3.1875E+04
4.079     4.3487E+04
4.239     2.8767E+04
4.399     4.3604E+04
4.559     2.7199E+04
4.719     3.2041E+04
4.879     3.6492E+04
5.039     4.8618E+04
5.199     2.7318E+04
5.359     2.9885E+04
5.519     5.5599E+04
5.679     2.3171E+04
5.839     3.1161E+04
5.999     2.6855E+04
6.159     4.1663E+04
6.319     5.5581E+04
6.479     1.7241E+04
6.639     3.6082E+04
6.799     1.8390E+04
6.959     4.3133E+04
7.119     2.5135E+04
7.279     3.5754E+04
7.439     2.0536E+04
7.599     3.8344E+04
7.759     2.1079E+04
7.919     1.9219E+04
8.079     2.2368E+04
8.239     2.9391E+04
8.399     3.1243E+04
8.559     1.5400E+04
8.719     1.5042E+04
8.879     2.4881E+04
9.039     2.1926E+04
9.199     2.0317E+04
9.359     2.7972E+04
9.519     1.6064E+04
9.679     1.9386E+04
9.839     2.1125E+04
9.999     1.7436E+04
10.159    1.5883E+04
10.319    2.6188E+04
10.479    1.4047E+04
10.639    9.1646E+03
10.799    1.3847E+04
10.959    9.3504E+03
11.119    7.6477E+03
11.279    8.0562E+03
11.439    1.4240E+04
11.599    1.2348E+04
11.759    1.4433E+04
11.919    7.5698E+03
12.079    7.7053E+03
12.239    1.3470E+04
12.399    7.4438E+03
12.559    3.4318E+03
12.719    5.5037E+03
12.879    7.6915E+03
13.039    1.1572E+04
13.199    1.1019E+04
13.359    1.8343E+04
13.519    6.6857E+03
13.679    6.1389E+03
13.839    7.9749E+03
13.999    5.8579E+03
14.159    6.8806E+03
14.319    8.3837E+03
14.479    5.2107E+03
14.639    3.7817E+03
14.799    4.7254E+04
14.959    8.9430E+03
15.119    5.4518E+03
15.279    2.3582E+04
15.439    1.1616E+04
15.599    5.9677E+03
15.759    2.0021E+04
15.919    1.0217E+04
16.079    7.2930E+03
16.239    7.9239E+03
16.399    1.6581E+04
16.559    6.2049E+03
16.719    3.2576E+04
16.879    8.4484E+04
17.039    2.3721E+05
17.199    4.5417E+04
17.359    3.3551E+04
17.519    1.9156E+05
17.679    1.3647E+05
17.839    1.4934E+04
17.999    2.2028E+05
18.159    4.7427E+04
18.319    1.2688E+04
18.479    8.2066E+04
18.639    4.7899E+04
18.799    1.7157E+05
18.959    4.0148E+04
19.119    2.6970E+04
19.279    1.9456E+05
19.439    1.6767E+05
19.599    5.6508E+04
19.759    2.2668E+04
19.919    1.8194E+04
20.079    4.9324E+04
20.239    2.0414E+05
20.399    4.5908E+04
20.559    2.2343E+04
20.719    2.1579E+04
20.879    1.7495E+04
21.039    5.1878E+04
21.199    1.1533E+05
21.359    1.3463E+04
21.519    1.9038E+04
21.679    2.1981E+04
21.839    2.9901E+04
21.999    4.9925E+04
22.159    2.6559E+04
22.319    2.0168E+04
22.479    4.7791E+04
22.639    4.8715E+04
22.799    1.8532E+04
22.959    5.7715E+03
23.119    2.1464E+04
23.279    1.5520E+04
23.439    2.7168E+04
23.599    1.0344E+04
23.759    1.3541E+04
23.919    3.0089E+04
24.079    3.3069E+04
24.239    5.5511E+04
24.399    3.1677E+04
24.559    3.5250E+04
24.719    9.8106E+03
24.879    3.2241E+04
25.039    1.5100E+04
25.200    5.2660E+04
25.360    1.1680E+04
25.520    1.8511E+04
25.680    1.6503E+05
25.840    4.0689E+04
25.999    1.8109E+04
26.160    2.7575E+04
26.320    1.9956E+04
26.480    6.2145E+04
26.640    6.4801E+03
26.799    2.9171E+03
26.960    6.4564E+03
27.120    3.7131E+04
27.279    1.5306E+04
27.440    6.8415E+04
27.599    1.6325E+04
27.760    2.8727E+04
27.920    1.1671E+04
28.079    1.1466E+04
28.240    3.1627E+03
28.399    3.5018E+05
28.559    7.7727E+03
28.720    3.5273E+03
28.880    1.8654E+04
29.040    1.4815E+04
29.200    1.7160E+04
29.360    1.1321E+04
29.520    3.8421E+03
29.680    1.9295E+04
29.840    3.2357E+03
29.999    4.8383E+03
30.160    3.2956E+03
30.320    2.3418E+05
30.480    5.2290E+03
30.640    4.9072E+03
30.799    6.7228E+03
30.960    6.6186E+03
31.120    7.1210E+03
31.279    1.7238E+04
31.440    3.6496E+04
31.599    2.3545E+04
31.760    1.1999E+04
31.920    3.0101E+04
32.080    1.7093E+04
32.239    3.1832E+03
32.399    3.8511E+03
32.559    3.7206E+03
32.720    4.6933E+03
32.880    8.0177E+03
33.040    4.2551E+03
33.200    8.6676E+03
33.360    5.2186E+04
33.520    2.0536E+05
33.679    3.2780E+03
33.840    9.9787E+03
33.999    4.6264E+03
34.160    2.1352E+04
34.320    2.4061E+03
34.480    2.1997E+04
34.640    2.4278E+04
34.800    7.0959E+04
34.960    1.7040E+04
35.120    6.1856E+03
35.280    4.8132E+04
35.440    1.5534E+04
35.600    2.0264E+04
35.760    5.2220E+03
35.920    3.5407E+04
36.080    9.5705E+04
36.240    8.7931E+02
36.400    3.7098E+04
36.560    1.5332E+04
36.720    2.7536E+04
36.880    7.6045E+04
37.040    9.0332E+02
37.200    1.8865E+03
37.360    3.4005E+03
37.520    1.5669E+03
37.680    8.7363E+02
37.840    9.9069E+02
38.000    4.0281E+03
38.160    1.8058E+03
38.320    2.7398E+03
38.480    3.1566E+03
38.640    1.5489E+03
38.800    2.5606E+03
38.960    4.3627E+03
39.120    7.0357E+02
39.280    2.0226E+03
39.440    1.8819E+03
39.600    1.3535E+03
39.760    7.2601E+02
39.920    7.7122E+03
40.080    1.6918E+04
40.240    3.0074E+04
40.400    1.0251E+04
40.560    7.7623E+02
40.720    1.2871E+03
40.880    9.7818E+02
41.040    2.9111E+03
41.200    3.5696E+03
41.360    1.5556E+03
41.520    1.3981E+03
41.680    2.6195E+04
41.840    8.9088E+03
42.000    1.7310E+03
42.160    1.4878E+03
42.320    8.8143E+02
42.480    1.1108E+03
42.640    4.7460E+02
42.800    1.1575E+03
42.960    5.6019E+03
43.120    1.3554E+04
43.280    5.8443E+03
43.440    7.8594E+03
43.600    1.7819E+04
43.760    3.4539E+03
43.920    1.4886E+03
44.080    2.1885E+03
44.240    1.0720E+03
44.400    4.1975E+03
44.560    5.0790E+03
44.720    4.2700E+03
44.880    1.1702E+03
45.040    4.8621E+02
45.200    1.0903E+03
45.360    6.8626E+02
45.520    6.6556E+02
45.680    5.5484E+02
45.840    7.1335E+02
46.000    2.1589E+03
46.160    9.6608E+02
46.320    6.4567E+02
46.480    9.8334E+04
46.640    6.9402E+03
46.800    3.2319E+03
46.960    4.0975E+03
47.120    5.6965E+02
47.280    5.1901E+02
47.440    3.8059E+02
47.600    7.4836E+02
47.760    4.0642E+02
47.920    6.6443E+02
48.080    8.5311E+03
48.240    8.4608E+03
48.400    7.5938E+02
48.560    8.7305E+02
48.720    2.2497E+03
48.880    2.6339E+03
49.040    1.7414E+03
49.200    1.9213E+03
49.360    8.7395E+02
49.520    5.7118E+02
49.680    4.0351E+02
49.840    1.3897E+03
50.000    5.9333E+04
50.160    5.2049E+02
50.320    3.8734E+02
50.480    3.6885E+02
50.640    4.2543E+02
50.800    1.1619E+04
50.960    2.8047E+03
51.120    3.4083E+02
51.280    3.7348E+02
51.440    4.4689E+02
51.600    6.7979E+02
51.760    4.6778E+02
51.920    7.6397E+02
52.080    2.9561E+04
52.240    1.1106E+03
52.400    2.9303E+02
52.560    5.1724E+03
52.720    4.3616E+02
52.880    3.7977E+02
53.040    4.9363E+02
53.200    5.9079E+02
53.360    4.3719E+02
53.520    3.1992E+02
53.680    1.4778E+03
53.840    3.4172E+03
54.000    1.3677E+03
54.160    4.5496E+03
54.320    3.7506E+03
54.480    1.1263E+03
54.640    6.1235E+02
54.800    2.8292E+02
54.960    5.8715E+03
55.120    6.6434E+02
55.280    1.1071E+04
55.440    7.9086E+04
55.600    8.4839E+03
55.760    6.3202E+03
55.920    1.7976E+04
56.080    1.6984E+03
56.240    2.1283E+04
56.400    1.7494E+03
56.560    3.3191E+02
56.720    7.7082E+02
56.880    5.8707E+03
57.040    6.3857E+03
57.200    9.3491E+03
57.360    3.4277E+03
57.520    6.1117E+02
57.680    2.5889E+02
57.840    3.0774E+02
58.000    7.4236E+02
58.160    3.8903E+03
58.320    5.7995E+02
58.480    1.6424E+04
58.640    3.4187E+03
58.800    2.5564E+02
58.960    2.9484E+02
59.120    2.6276E+02
59.280    2.8123E+03
59.440    4.5146E+02
59.600    3.9481E+02
59.760    1.2663E+03
59.920    1.2134E+04
60.080    4.6986E+02
60.240    3.4727E+02
60.400    8.8141E+02
60.560    3.1377E+02
60.720    2.6841E+02
60.880    1.0794E+04
61.040    7.0390E+04
61.200    4.7973E+02
61.360    3.3382E+02
61.520    2.7056E+02
61.680    2.3645E+03
61.840    2.8021E+02
62.000    2.8925E+02
62.160    8.5094E+02
62.320    4.1667E+02
62.480    2.8849E+04
62.640    5.1291E+02
62.800    4.7312E+02
62.960    2.8513E+05
63.120    3.7919E+02
63.280    2.6055E+02
63.440    2.9323E+02
63.600    5.4063E+02
63.760    8.0924E+02
63.920    1.7688E+03
64.080    4.0844E+02
64.240    3.6250E+02
64.400    8.8359E+02
64.560    4.8483E+02
64.720    2.5917E+02
64.880    6.9466E+02
65.040    3.2574E+02
65.200    4.4410E+02
65.360    2.8635E+02
65.520    3.0091E+02
65.680    1.6524E+03
65.840    5.2674E+02
66.000    7.0394E+02
66.160    2.8475E+03
66.320    7.9462E+02
66.480    3.0712E+02
66.640    2.8698E+02
66.800    2.6819E+02
66.960    3.5483E+02
67.120    5.7553E+02
67.280    4.4321E+02
67.440    4.2215E+02
67.600    5.5168E+02
67.760    5.9020E+02
67.920    6.8063E+02
68.080    2.6844E+03
68.240    2.1423E+03
68.400    6.9127E+02
68.560    8.1534E+03
68.720    1.8172E+03
68.880    4.0620E+02
69.040    1.0198E+03
69.200    6.4403E+02
69.360    1.6314E+03
69.520    8.5753E+02
69.680    1.3083E+03
69.840    4.0174E+02
70.000    2.2411E+03
70.160    2.5083E+03
70.320    2.1974E+04
70.480    1.1107E+03
70.640    3.6811E+03
70.800    4.5779E+02
70.960    2.9820E+02
71.120    8.3524E+02
71.280    6.4575E+02
71.440    1.1095E+03
71.600    3.0307E+02
71.760    8.3594E+02
71.920    4.4520E+03
72.080    1.2193E+03
72.240    3.8960E+02
72.400    4.4313E+02
72.560    5.0238E+02
72.720    3.0227E+02
72.880    7.4437E+02
73.040    4.6116E+02
73.200    2.9968E+02
73.360    3.1070E+02
73.520    3.1753E+02
73.680    3.2060E+02
73.840    3.3419E+02
74.000    3.0987E+02
74.160    3.4753E+02
74.320    3.0956E+02
74.480    7.6202E+02
74.640    5.9148E+02
74.800    1.1936E+03
74.960    2.8959E+03
75.120    3.8675E+02
75.280    3.7335E+02
75.440    7.6644E+02
75.600    3.3456E+02
75.760    3.6773E+02
75.920    7.7590E+03
76.080    1.4540E+04
76.240    4.8515E+03
76.400    3.0958E+03
76.560    2.6674E+04
76.720    3.3541E+02
76.880    4.1210E+02
77.040    5.2922E+04
77.200    1.0333E+03
77.360    7.4211E+02
77.520    1.6069E+03
77.680    9.1945E+02
77.840    3.7314E+02
78.000    2.7795E+04
78.160    4.1437E+02
78.320    9.7003E+02
78.480    3.9099E+02
78.640    1.3595E+04
78.800    3.1596E+04
78.960    5.7197E+04
79.120    1.4170E+03
79.280    4.0243E+02
79.440    3.8390E+02
79.600    1.1481E+03
79.760    5.7849E+02
79.920    4.3738E+02
80.080    6.4530E+02
80.240    5.0161E+02
80.400    6.3504E+02
80.560    5.2115E+02
80.720    1.1909E+03
80.880    7.0183E+02
81.040    6.7425E+02
81.200    4.3289E+02
81.360    4.7439E+02
81.520    7.9687E+02
81.680    5.7854E+02
81.840    4.9762E+02
82.000    4.9509E+02
82.160    6.8403E+02
82.320    7.8163E+02
82.480    5.3244E+02
82.640    5.6846E+02
82.800    5.0972E+02
82.960    4.8413E+02
83.120    5.3300E+02
83.280    1.6048E+04
83.440    2.9335E+04
83.600    1.5788E+04
83.760    7.8594E+02
83.920    5.4448E+02
84.080    5.6620E+02
84.240    5.2023E+02
84.400    5.9401E+02
84.560    8.7818E+02
84.720    5.6664E+02
84.880    6.6220E+02
85.040    7.5132E+02
85.200    7.1749E+02
85.360    6.1199E+02
85.520    9.3452E+02
85.680    7.5109E+02
85.840    1.3679E+04
86.000    7.6646E+02
86.160    6.1063E+02
86.320    5.9110E+02
86.480    5.9662E+02
86.640    5.9602E+02
86.800    9.3624E+02
86.960    5.9618E+02
87.120    7.3785E+02
87.280    6.8583E+02
87.440    6.4042E+02
87.600    7.7616E+02
87.760    7.5407E+02
87.920    6.3835E+02
88.080    6.9153E+02
88.240    6.7357E+02
88.400    6.6681E+02
88.560    6.4127E+02
88.720    9.1359E+02
88.880    6.5940E+02
89.040    7.8104E+02
89.200    7.7086E+02
89.360    6.9539E+02
89.520    5.4033E+03
89.680    7.1444E+02
89.840    8.3741E+02
90.000    8.8986E+02
90.160    7.4815E+02
90.320    3.4493E+03
90.480    7.4063E+03
90.640    1.0876E+03
90.800    7.3997E+02
90.960    8.2419E+02
91.120    8.2380E+02
91.280    2.8400E+02
91.440    1.4183E+02
91.600    2.0023E+03
91.760    2.6538E+02
91.920    1.7464E+02
92.080    1.8493E+02
92.240    1.5428E+03
92.400    1.4098E+03
92.560    9.7075E+01
92.720    9.6803E+01
92.880    1.0037E+02
93.040    1.1056E+02
93.200    1.0502E+02
93.360    3.9663E+03
93.520    1.0933E+02
93.680    1.9159E+02
93.840    2.0239E+02
94.000    1.0564E+02
94.160    1.0544E+02
94.320    1.3379E+02
94.480    3.2449E+03
94.640    1.4785E+02
94.800    1.0286E+02
94.960    3.2036E+04
95.120    1.2048E+02
95.280    8.7931E+01
95.440    1.0273E+02
95.600    1.6315E+02
95.760    1.2237E+02
95.920    9.0940E+01
96.080    1.0584E+02
96.240    1.4753E+02
96.400    8.9628E+01
96.560    8.7356E+01
96.720    1.3079E+02
96.880    1.0377E+02
97.040    1.0813E+02
97.200    7.1270E+04
97.360    1.2089E+03
97.520    1.2673E+03
97.680    1.2894E+05
97.840    1.5823E+02
98.000    2.3168E+02
98.160    1.0370E+02
98.320    1.0131E+02
98.480    8.5559E+01
98.640    1.2129E+02
98.800    1.3275E+02
98.960    3.8223E+03
99.120    6.8275E+03
99.280    4.7809E+02
99.440    2.2963E+02
99.600    3.0224E+02
99.760    6.3347E+02
99.920    2.1659E+03
100.080   2.4013E+02
100.240   9.7206E+01
100.400   8.2486E+01
100.560   1.6140E+03
100.720   1.2644E+02
100.880   7.8806E+01
101.040   1.2388E+03
101.200   2.4713E+02
101.360   1.2420E+02
101.520   6.6080E+02
101.680   8.6476E+01
101.840   1.7179E+02
102.000   1.6525E+02
102.160   6.5123E+02
102.320   1.1939E+02
102.480   3.3286E+04
102.640   2.9826E+05
102.800   5.6409E+02
102.960   3.1101E+02
103.120   9.5584E+04
103.280   1.9744E+04
103.440   1.2083E+02
103.600   3.8366E+03
103.760   6.6916E+04
103.920   7.4379E+01
104.080   1.4500E+02
104.240   7.3277E+01
104.400   7.6865E+01
104.560   3.3052E+02
104.720   1.5654E+02
104.880   3.6580E+02
105.040   1.2669E+02
105.200   1.0848E+02
105.360   1.2829E+02
105.520   1.1537E+02
105.680   9.6972E+01
105.840   8.8848E+01
106.000   8.7704E+01
106.160   1.0862E+02
106.320   1.3618E+03
106.480   7.8034E+01
106.640   3.5011E+02
106.800   1.1649E+02
106.960   7.7381E+01
107.120   7.0137E+01
107.280   1.9763E+03
107.440   1.0696E+02
107.600   7.3430E+01
107.760   7.9996E+02
107.920   1.2022E+02
108.080   9.9017E+01
108.240   7.8094E+01
108.400   2.2922E+03
108.560   2.6757E+03
108.720   7.9747E+01
108.880   6.8954E+01
109.040   6.6814E+01
109.200   6.6118E+01
109.360   6.7693E+01
109.520   6.7270E+01
109.680   1.9171E+02
109.840   1.7620E+02
110.000   1.2499E+02
110.160   2.3622E+02
110.320   1.5011E+02
110.480   7.4544E+01
110.640   7.9169E+01
110.800   3.3002E+02
110.960   6.4176E+02
111.120   7.3023E+01
111.280   1.5775E+03
111.440   7.4168E+01
111.600   7.5076E+01
111.760   4.8552E+02
111.920   7.4292E+01
112.080   7.2150E+01
112.240   2.5223E+02
112.400   9.5883E+01
112.560   1.4737E+02
112.720   1.0027E+02
112.880   2.7887E+02
113.040   1.1291E+02
113.200   9.9030E+01
113.360   2.3565E+02
113.520   3.2221E+02
113.680   4.0734E+02
113.840   7.1062E+01
114.000   6.3412E+01
114.160   1.6206E+02
114.320   8.3401E+01
114.480   5.3190E+02
114.640   5.1923E+02
114.800   8.2994E+01
114.960   6.3000E+01
115.120   6.9835E+01
115.280   1.7493E+02
115.440   6.7347E+01
115.600   7.0209E+01
115.760   5.9838E+01
115.920   6.6439E+01
116.080   5.9501E+01
116.240   6.1241E+01
116.400   6.4444E+01
116.560   6.6156E+01
116.720   1.1114E+02
116.880   9.0310E+01
117.040   8.3526E+01
117.200   7.1206E+01
117.360   5.9567E+01
117.520   1.0966E+04
117.680   2.3830E+03
117.840   6.0252E+01
118.000   5.7499E+01
118.160   7.1346E+01
118.320   8.3767E+01
118.480   9.1906E+01
118.640   6.1652E+01
118.800   7.8449E+01
118.960   1.4511E+03
119.120   5.6203E+02
119.280   8.5404E+02
119.440   2.8207E+03
119.600   4.6930E+02
119.760   4.8237E+02
119.920   8.5460E+02
120.080   1.3534E+03
120.240   3.8406E+02
120.400   1.1156E+03
120.560   5.5750E+03
120.720   3.2702E+04
120.880   7.9442E+03
121.040   1.3496E+04
121.200   2.8698E+04
121.360   1.0604E+05
121.520   4.6489E+06
121.680   9.8943E+05
121.840   7.7612E+04
122.000   2.0202E+04
122.160   1.0611E+04
122.320   5.8773E+03
122.480   1.7618E+02
122.640   1.9120E+02
122.800   2.0232E+02
122.960   2.2873E+02
123.120   2.1751E+02
123.280   2.2996E+02
123.440   2.6551E+02
123.600   2.7626E+02
123.760   2.7426E+02
123.920   9.1416E+03
124.080   2.9319E+02
124.240   6.9494E+03
124.400   3.3734E+02
124.560   3.3233E+02
124.720   5.4783E+02
124.880   3.7869E+02
125.040   7.9804E+02
125.201   3.9850E+02
125.361   1.2731E+03
125.521   4.0646E+02
125.680   4.1452E+02
125.840   4.2013E+02
126.001   3.1644E+03
126.161   4.9534E+02
126.321   4.5010E+02
126.481   3.2620E+03
126.641   4.6355E+02
126.800   4.7393E+02
126.960   4.7670E+02
127.121   4.8817E+02
127.281   4.9913E+02
127.441   5.2230E+02
127.601   5.2536E+02
127.761   5.8868E+02
127.921   5.3865E+02
128.081   5.6042E+02
128.240   5.3588E+02
128.401   5.4851E+02
128.560   5.8415E+02
128.721   5.6402E+02
128.880   5.6035E+02
129.041   5.7476E+02
129.201   5.8488E+02
129.361   6.0305E+02
129.521   8.4579E+02
129.680   8.4514E+02
129.841   1.5931E+03
130.000   6.0358E+02
130.161   8.1836E+02
130.321   9.1327E+02
130.481   1.0897E+03
130.641   6.5549E+02
130.800   6.2818E+02
130.961   1.2854E+03
131.120   6.4938E+02
131.281   8.8013E+02
131.440   6.3986E+02
131.601   6.5598E+02
131.761   6.5654E+02
131.921   6.6267E+02
132.081   6.5294E+02
132.240   6.5773E+02
132.401   1.0417E+03
132.560   6.6266E+02
132.721   6.7418E+02
132.880   1.0953E+03
133.041   7.4214E+02
133.201   6.8170E+02
133.361   1.4991E+03
133.521   6.0350E+04
133.680   7.0255E+02
133.841   7.4059E+02
134.000   6.8689E+02
134.161   6.9425E+02
134.321   8.0125E+02
134.481   6.9706E+02
134.641   6.9873E+02
134.800   6.9825E+02
134.961   1.9282E+03
135.121   7.3301E+02
135.281   7.0393E+02
135.441   1.1318E+03
135.601   8.9780E+02
135.761   7.1643E+02
135.921   7.4993E+02
136.081   7.2328E+02
136.241   7.2495E+02
136.401   7.4832E+02
136.561   7.4650E+02
136.721   7.1778E+02
136.881   7.4622E+02
137.041   1.2801E+03
137.201   3.4300E+03
137.361   7.4358E+02
137.521   7.4027E+02
137.681   7.2513E+02
137.841   7.3581E+02
138.001   7.2639E+02
138.161   7.2406E+02
138.321   7.2613E+02
138.481   7.3870E+02
138.641   7.2645E+02
138.801   7.3177E+02
138.961   7.4204E+02
139.121   7.3842E+02
139.281   9.8054E+02
139.441   4.0058E+03
139.601   7.3005E+02
139.761   1.3866E+03
139.921   2.0838E+03
140.081   8.5101E+03
140.241   2.5192E+03
140.401   2.9774E+03
140.561   3.7155E+03
140.721   2.0770E+03
140.881   8.3364E+02
141.041   7.5585E+02
141.201   7.4156E+02
141.361   7.4472E+02
141.521   7.3333E+02
141.681   1.2712E+03
141.841   7.3609E+02
142.001   7.8379E+02
142.161   7.3122E+02
142.321   8.3516E+02
142.481   7.9032E+02
142.641   7.3428E+02
142.801   9.1707E+02
142.961   8.2788E+02
143.121   8.6574E+02
143.281   7.5840E+02
143.441   1.0196E+03
143.601   7.2945E+02
143.761   7.3044E+02
143.921   7.3043E+02
144.081   1.0482E+03
144.241   7.9253E+02
144.401   8.7947E+02
144.561   2.0886E+03
144.721   8.6662E+02
144.881   8.2814E+02
145.041   7.7977E+02
145.201   9.3278E+02
145.361   7.7871E+02
145.521   7.2525E+02
145.681   7.3302E+02
145.841   7.2476E+02
146.001   7.2553E+02
146.161   8.3335E+02
146.321   1.0216E+03
146.481   7.2879E+02
146.641   1.6756E+03
146.801   8.1909E+02
146.961   7.3132E+02
147.121   7.3021E+02
147.281   7.2680E+02
147.441   7.5333E+02
147.601   7.1694E+02
147.761   7.1789E+02
147.921   7.1442E+02
148.081   7.1840E+02
148.241   7.6114E+02
148.401   7.2474E+02
148.561   1.2457E+03
148.721   3.2564E+03
148.881   7.1281E+02
149.041   7.0917E+02
149.201   7.7678E+02
149.361   7.6065E+02
149.521   7.3685E+02
149.681   7.3018E+02
149.841   7.0376E+02
150.001   7.0742E+02
150.161   1.0194E+03
150.321   8.3253E+02
150.481   8.9034E+02
150.641   7.0121E+02
150.801   6.9851E+02
150.961   7.1072E+02
151.121   8.3263E+02
151.281   6.9753E+02
151.441   8.0511E+02
151.601   6.9466E+02
151.761   7.1487E+02
151.921   7.3698E+02
152.081   7.6122E+02
152.241   7.0314E+02
152.401   7.3735E+02
152.561   7.1728E+02
152.721   1.4907E+03
152.881   6.9072E+02
153.041   7.4917E+02
153.201   6.9553E+02
153.361   2.2287E+03
153.521   6.8147E+02
153.681   6.8957E+02
153.841   6.8084E+02
154.001   6.8254E+02
154.161   7.1446E+02
154.321   6.7633E+02
154.481   7.4839E+02
154.641   6.8246E+02
154.801   2.8542E+04
154.961   7.2294E+02
155.121   1.4605E+04
155.281   6.8757E+02
155.441   6.8650E+02
155.601   6.6842E+02
155.761   6.6724E+02
155.921   9.1258E+02
156.081   3.0187E+03
156.241   7.5719E+02
156.401   8.0591E+02
156.561   6.6878E+02
156.721   6.7277E+02
156.881   7.0828E+02
157.041   8.0334E+02
157.201   6.6818E+02
157.361   6.9184E+02
157.521   1.3112E+03
157.681   1.2159E+03
157.841   6.6571E+02
158.001   6.9785E+02
158.161   6.7266E+02
158.321   8.8041E+02
158.481   6.8347E+02
158.641   1.1874E+03
158.801   7.2426E+02
158.961   6.4914E+02
159.121   6.4630E+02
159.281   8.5417E+02
159.441   8.3689E+02
159.601   6.6079E+02
159.761   7.3447E+02
159.921   7.9465E+02
159.982   2.8820E+03
160.033   3.5002E+03
160.083   4.9489E+03
160.133   4.3172E+03
160.184   2.9511E+03
160.235   4.5705E+03
160.285   7.3270E+03
160.334   3.1457E+03
160.386   3.7910E+03
160.447   1.7170E+03
160.506   1.5758E+03
160.557   2.6486E+03
160.606   3.1124E+03
160.657   2.6772E+03
160.707   3.8424E+03
160.755   2.9274E+03
160.807   2.2134E+03
160.859   7.7894E+03
160.908   3.0319E+03
160.966   1.3401E+03
161.025   1.7829E+03
161.075   2.8127E+03
161.127   5.1075E+03
161.179   1.8125E+03
161.231   1.9055E+03
161.282   6.8432E+03
161.331   5.0563E+03
161.383   4.0099E+03
161.435   2.9251E+03
161.486   4.3472E+03
161.536   1.8647E+03
161.585   2.7718E+03
161.642   2.3092E+03
161.706   2.3323E+03
161.772   2.0638E+03
161.834   5.7679E+03
161.886   3.2713E+03
161.938   2.9003E+03
161.994   3.1159E+03
162.050   3.6837E+03
162.102   2.3845E+03
162.152   5.3992E+03
162.201   7.9045E+03
162.251   2.5935E+03
162.302   7.5311E+03
162.351   3.2392E+03
162.402   3.5820E+03
162.456   1.8402E+03
162.515   2.1372E+03
162.570   7.6725E+03
162.622   4.5400E+03
162.674   2.1148E+03
162.725   3.0767E+03
162.782   2.0386E+03
162.839   2.0358E+03
162.896   3.5245E+03
162.951   8.8268E+03
162.999   7.1709E+03
163.053   2.6366E+03
163.103   5.8963E+03
163.154   2.2765E+03
163.210   1.9095E+03
163.265   9.3564E+03
163.316   3.5562E+03
163.368   2.8521E+03
163.437   5.2506E+03
163.511   2.7179E+03
163.572   5.0456E+03
163.626   5.4721E+03
163.679   2.9119E+03
163.733   5.6139E+03
163.785   2.2079E+03
163.835   3.5276E+03
163.886   2.9108E+03
163.937   5.5014E+03
163.987   3.8536E+03
164.036   3.1869E+05
164.084   9.6405E+04
164.138   4.3241E+03
164.192   3.3281E+03
164.244   2.8787E+03
164.298   1.8251E+03
164.352   8.5533E+03
164.403   2.6624E+03
164.454   1.9478E+03
164.510   2.6394E+03
164.569   1.5696E+03
164.624   2.3716E+03
164.676   2.4152E+03
164.727   4.6005E+03
164.778   2.9156E+03
164.831   2.8630E+03
164.881   2.5592E+03
164.930   5.0508E+03
164.978   4.7402E+03
165.027   2.4236E+03
165.078   2.6634E+03
165.128   3.2249E+03
165.178   2.5234E+03
165.255   1.8039E+03
165.332   4.1563E+03
165.383   7.6711E+03
165.432   7.4602E+03
165.483   7.0575E+03
165.535   3.9136E+03
165.587   4.1161E+03
165.637   7.5285E+04
165.685   5.4589E+04
165.733   9.1377E+04
165.781   4.2641E+04
165.829   7.4420E+04
165.878   7.9320E+03
165.932   7.3055E+03
165.983   8.5380E+03
166.034   2.8090E+03
166.089   4.6205E+03
166.145   3.1362E+03
166.200   2.6168E+03
166.252   6.0464E+03
166.307   4.5452E+03
166.361   3.8676E+03
166.417   2.2267E+03
166.473   2.9788E+03
166.526   2.6485E+03
166.575   2.1543E+03
166.623   9.2553E+03
166.672   8.0068E+03
166.724   2.0295E+03
166.777   2.5984E+03
166.826   3.1242E+03
166.875   3.6383E+03
166.924   2.6579E+03
166.974   3.7347E+03
167.025   3.0698E+03
167.073   9.1953E+04
167.162   7.9678E+03
167.252   3.0889E+03
167.307   3.6920E+03
167.361   4.4413E+03
167.414   6.9440E+03
167.463   5.6977E+03
167.512   5.7400E+03
167.565   2.7239E+03
167.619   2.7361E+03
167.673   5.7018E+03
167.727   2.3870E+03
167.780   2.9735E+03
167.833   2.3066E+03
167.885   2.1321E+03
167.934   4.0096E+03
167.982   3.5218E+03
168.033   2.3344E+03
168.083   2.9121E+03
168.132   6.5103E+03
168.183   2.2715E+03
168.237   1.9626E+03
168.288   3.0579E+03
168.336   3.9990E+03
168.385   2.8918E+03
168.435   2.5664E+03
168.485   3.0448E+03
168.536   2.4578E+03
168.587   6.6959E+03
168.642   1.1087E+04
168.696   6.7793E+03
168.747   3.4896E+03
168.800   2.9914E+03
168.851   3.7767E+03
168.899   2.4229E+03
168.948   3.0054E+03
169.046   2.0642E+03
169.144   7.2837E+03
169.197   2.8535E+03
169.251   6.5491E+03
169.304   2.8577E+03
169.355   4.9852E+03
169.404   6.1480E+03
169.452   5.0368E+03
169.501   4.4867E+03
169.552   4.0734E+03
169.602   4.5537E+03
169.650   6.3779E+03
169.699   2.1563E+04
169.749   2.5999E+03
169.800   8.0226E+03
169.852   3.9431E+03
169.903   3.3966E+03
169.953   2.9426E+03
171.539   1.0819E+04
173.195   1.1772E+04
173.388   1.4419E+04
173.577   1.1003E+04
173.767   9.5890E+03
173.961   1.0138E+04
174.170   8.4414E+03
174.357   1.0328E+04
174.520   1.1100E+04
174.696   8.3641E+03
174.881   1.1950E+04
175.046   1.1718E+04
175.219   1.4512E+04
175.409   1.0183E+04
175.603   1.0367E+04
175.786   9.4317E+03
175.968   9.2517E+03
176.156   1.3008E+04
176.315   1.0962E+04
176.468   1.1886E+04
176.633   1.2438E+04
176.816   9.9695E+03
176.996   8.8657E+03
177.177   1.0923E+04
177.348   1.2269E+04
177.507   1.0612E+04
177.677   9.1296E+03
177.836   1.1622E+04
177.983   1.0712E+04
178.151   1.0749E+04
178.330   9.3633E+03
178.510   8.8336E+03
178.676   1.0810E+04
178.828   1.1700E+04
178.962   1.0274E+04
179.104   9.2594E+03
179.266   9.6219E+03
179.424   9.6907E+03
179.579   9.0107E+03
179.726   8.9447E+03
179.879   9.3907E+03
180.041   8.2732E+03
180.201   7.7992E+03
180.355   8.2751E+03
180.505   1.0399E+04
180.651   8.4932E+03
180.788   1.9424E+05
180.929   1.1639E+04
181.085   1.0619E+04
181.240   1.2105E+04
181.388   1.0867E+04
181.532   1.0065E+04
181.664   2.7528E+05
181.792   9.2178E+04
181.926   1.0298E+04
182.066   1.7913E+04
182.200   1.2995E+04
182.339   1.0107E+04
182.485   1.2118E+04
182.626   1.7014E+04
182.758   1.2214E+04
182.902   9.1625E+03
183.046   8.9864E+03
183.183   1.1114E+04
183.328   1.0799E+04
183.477   9.6759E+03
183.616   1.0855E+04
183.749   9.1044E+03
183.883   8.8029E+03
184.020   9.2082E+03
184.163   1.2018E+04
184.300   1.0533E+04
184.438   1.0936E+04
184.577   9.5752E+03
184.707   1.1414E+04
184.833   1.1192E+04
184.960   1.1063E+04
185.092   1.2398E+04
185.226   1.1200E+04
185.354   8.9856E+03
185.477   2.2999E+04
185.601   1.0793E+04
185.732   7.1608E+03
185.865   1.0996E+04
185.993   1.6235E+04
186.122   8.5972E+03
186.256   1.6594E+04
186.387   9.0239E+03
186.517   1.1101E+04
186.645   1.2984E+04
186.774   1.1120E+04
186.900   1.1457E+04
187.025   1.0114E+04
187.158   9.6202E+03
187.295   1.3941E+04
187.428   1.2135E+04
187.556   1.9255E+04
187.688   1.1742E+04
187.821   1.0109E+04
187.950   1.0084E+04
188.078   1.0737E+04
188.206   1.2038E+04
188.334   1.1623E+04
188.457   1.2850E+04
188.581   1.0177E+04
188.702   1.0832E+04
188.829   1.3580E+04
188.958   1.1569E+04
189.086   1.1866E+04
189.212   4.2442E+04
189.338   1.2935E+04
189.466   1.2185E+04
189.592   1.4842E+04
189.716   1.2141E+04
189.845   1.1590E+04
189.979   2.2618E+04
190.106   1.4877E+04
190.231   2.5540E+04
190.355   1.4864E+04
190.480   1.5372E+04
190.605   1.3447E+04
190.729   1.3153E+04
190.855   1.4941E+04
190.981   1.3833E+04
191.105   1.4031E+04
191.231   1.2459E+04
191.357   1.2500E+04
191.481   1.9708E+04
191.605   1.8053E+04
191.730   1.3984E+04
191.856   1.2155E+04
191.980   1.4321E+04
192.106   1.5492E+04
192.231   1.4842E+04
192.356   2.1154E+04
192.484   1.2160E+04
192.611   2.5403E+04
192.737   1.4524E+04
192.862   1.2164E+04
192.987   1.3167E+04
193.113   2.9719E+04
193.238   1.2113E+04
193.365   1.1111E+04
193.492   1.0972E+04
193.618   1.0025E+04
193.745   1.4776E+04
193.872   1.4568E+04
193.998   1.3600E+04
194.123   1.5227E+04
194.248   1.8290E+04
194.374   1.9999E+04
194.500   1.5158E+04
194.627   1.5664E+04
194.753   1.6511E+04
194.880   1.6559E+04
195.006   1.6305E+04
195.134   1.5412E+04
195.262   1.2801E+04
195.389   1.8050E+04
195.515   1.8146E+04
195.642   1.7355E+04
195.768   1.6568E+04
195.894   1.7103E+04
196.020   1.7234E+04
196.148   1.5764E+04
196.275   1.7723E+04
196.403   1.6179E+04
196.531   1.7246E+04
196.659   1.9996E+04
196.787   2.1082E+04
196.914   2.0996E+04
197.042   1.9470E+04
197.170   1.8672E+04
197.297   1.8134E+04
197.425   1.8244E+04
197.552   1.9025E+04
197.680   1.8903E+04
197.807   2.0503E+04
197.934   2.1427E+04
198.062   2.2838E+04
198.192   1.9089E+04
198.321   2.2764E+04
198.450   2.0595E+04
198.579   2.2183E+04
198.708   2.0678E+04
198.836   2.0182E+04
198.965   2.3967E+04
199.094   1.9455E+04
199.223   2.1621E+04
199.352   5.2326E+04
199.481   1.9398E+04
199.609   2.0957E+04
199.738   2.0433E+04
199.866   2.1000E+04
199.995   2.4017E+04
200.126   2.3055E+04
200.256   2.2650E+04
200.386   2.1554E+04
200.517   2.3915E+04
200.647   2.1169E+04
200.777   2.8916E+04
200.907   2.3006E+04
201.037   2.3888E+04
201.167   3.0576E+04
201.297   2.3202E+04
201.427   2.6787E+04
201.557   2.3599E+04
201.687   2.8204E+04
201.817   2.7890E+04
201.947   2.7937E+04
202.078   2.4614E+04
202.210   2.5780E+04
202.342   2.5064E+04
202.473   2.3642E+04
202.605   2.7799E+04
202.736   2.3906E+04
202.867   2.6604E+04
202.999   2.7255E+04
203.130   2.8402E+04
203.262   2.8713E+04
203.393   2.3642E+04
203.524   2.4116E+04
203.655   2.9300E+04
203.786   2.8038E+04
203.917   2.5664E+04
204.050   3.0658E+04
204.183   3.3584E+04
204.316   2.8549E+04
204.449   2.9684E+04
204.582   2.8510E+04
204.714   2.8824E+04
204.847   2.7198E+04
204.980   2.9013E+04
205.112   2.9229E+04
205.245   3.0331E+04
205.378   3.1216E+04
205.510   3.0067E+04
205.643   3.7695E+04
205.775   3.2901E+04
205.908   3.0583E+04
206.042   2.8999E+04
206.176   3.2856E+04
206.310   3.0951E+04
206.445   3.3510E+04
206.579   3.4066E+04
206.713   3.1023E+04
206.847   3.2527E+04
206.981   2.9108E+04
207.115   3.2581E+04
207.249   3.4209E+04
207.383   3.4441E+04
207.516   3.2943E+04
207.650   3.4748E+04
207.784   3.1956E+04
207.917   3.6220E+04
208.050   3.9659E+04
208.186   3.4613E+04
208.322   3.6269E+04
208.457   3.9853E+04
208.593   4.2765E+04
208.728   4.6641E+04
208.863   4.8314E+04
208.999   4.1516E+04
209.134   4.6888E+04
209.269   4.7383E+04
209.405   5.1386E+04
209.540   5.2294E+04
209.675   5.3677E+04
209.810   5.8893E+04
209.946   5.3653E+04
210.081   4.8457E+04
210.217   6.2546E+04
210.354   4.6522E+04
210.491   5.3089E+04
210.628   6.1781E+04
210.764   5.3973E+04
210.901   5.4077E+04
211.038   4.5484E+04
211.175   6.4096E+04
211.311   6.9715E+04
211.448   5.9158E+04
211.585   4.9957E+04
211.721   6.8142E+04
211.858   6.8232E+04
211.994   6.8107E+04
212.131   7.6404E+04
212.267   6.1486E+04
212.404   7.0378E+04
212.542   5.7306E+04
212.681   6.1726E+04
212.819   5.9575E+04
212.957   7.3038E+04
213.095   6.0883E+04
213.234   6.7373E+04
213.372   6.8517E+04
213.510   6.8716E+04
213.648   6.7442E+04
213.786   7.7371E+04
213.924   6.1471E+04
214.062   6.8213E+04
214.200   7.5315E+04
214.338   7.5979E+04
214.475   6.7874E+04
214.613   7.3613E+04
214.753   7.2941E+04
214.892   6.9889E+04
215.032   7.6019E+04
215.172   5.9733E+04
215.311   6.5442E+04
215.451   8.5346E+04
215.591   6.5581E+04
215.730   6.8336E+04
215.870   5.5998E+04
216.009   5.8266E+04
216.149   8.7518E+04
216.288   7.0523E+04
216.427   7.1436E+04
216.567   7.8680E+04
216.706   4.9483E+04
216.847   6.8349E+04
216.989   7.3860E+04
217.130   7.9223E+04
217.271   7.0456E+04
217.412   7.5416E+04
217.553   8.0838E+04
217.694   8.3071E+04
217.836   5.5777E+04
217.977   7.1272E+04
218.118   8.5971E+04
218.258   8.2744E+04
218.399   7.9979E+04
218.540   7.7065E+04
218.681   7.5375E+04
218.822   7.1608E+04
218.961   8.3612E+04
219.101   8.8318E+04
219.244   6.8554E+04
219.387   1.0106E+05
219.530   9.9493E+04
219.672   7.6050E+04
219.815   1.0013E+05
219.958   9.2849E+04
220.100   6.3209E+04
220.243   9.2753E+04
220.385   1.1239E+05
220.528   9.6186E+04
220.670   1.1139E+05
220.812   9.7172E+04
220.955   9.3862E+04
221.097   8.4088E+04
221.239   8.1595E+04
221.381   1.3044E+05
221.524   1.1364E+05
221.668   9.1671E+04
221.812   8.3970E+04
221.956   9.6747E+04
222.101   1.0845E+05
222.245   1.0609E+05
222.389   1.1415E+05
222.533   1.2182E+05
222.677   1.2028E+05
222.821   1.1265E+05
222.965   1.2366E+05
223.109   1.0638E+05
223.253   1.2745E+05
223.397   1.6914E+05
223.540   1.5100E+05
223.683   1.5947E+05
223.828   1.2417E+05
223.973   1.2120E+05
224.119   1.4095E+05
224.265   1.2672E+05
224.411   1.2627E+05
224.557   1.3872E+05
224.702   1.3565E+05
224.848   1.6385E+05
224.994   1.8143E+05
225.139   1.9047E+05
225.285   1.7571E+05
225.430   1.8669E+05
225.576   1.7304E+05
225.721   1.2805E+05
225.866   1.1013E+05
226.012   1.1936E+05
226.156   2.0844E+05
226.301   1.4074E+05
226.448   1.1494E+05
226.596   1.1470E+05
226.743   1.3527E+05
226.890   1.7453E+05
227.038   1.1999E+05
227.185   1.1625E+05
227.332   1.2130E+05
227.480   1.1647E+05
227.627   1.3182E+05
227.774   1.4335E+05
227.921   1.3779E+05
228.068   2.0766E+05
228.215   1.6403E+05
228.362   1.5606E+05
228.509   1.4453E+05
228.656   1.6991E+05
228.804   1.2463E+05
228.953   1.5688E+05
229.102   1.2998E+05
229.251   1.6054E+05
229.400   1.7530E+05
229.549   1.5525E+05
229.698   1.9498E+05
229.846   1.2945E+05
229.995   1.3195E+05
230.144   9.0082E+04
230.293   1.3833E+05
230.441   1.4184E+05
230.590   1.6309E+05
230.739   1.9671E+05
230.887   1.7745E+05
231.036   1.3957E+05
231.184   1.1860E+05
231.333   1.2642E+05
231.484   1.4127E+05
231.635   2.1013E+05
231.785   1.7878E+05
231.936   1.9143E+05
232.086   1.2254E+05
232.237   1.4231E+05
232.388   2.1191E+05
232.538   2.0658E+05
232.688   1.5519E+05
232.839   1.8355E+05
232.989   1.7612E+05
233.139   2.2488E+05
233.290   2.5742E+05
233.440   2.3666E+05
233.590   3.2503E+05
233.740   2.1687E+05
233.889   2.2048E+05
234.039   1.9220E+05
234.191   2.3517E+05
234.344   2.1706E+05
234.496   3.6056E+05
234.648   1.4189E+05
234.801   1.5058E+05
234.953   2.9329E+05
235.105   2.5318E+05
235.257   2.0771E+05
235.409   2.1970E+05
235.561   2.1793E+05
235.713   2.3132E+05
235.865   2.3957E+05
257.549   6.1934E+05
257.593   3.0968E+05
257.636   4.0325E+05
257.679   4.0773E+05
257.722   5.2212E+05
257.766   4.5314E+05
257.809   5.1597E+05
257.852   6.9595E+05
257.895   5.3824E+05
257.940   7.4591E+05
257.984   6.5430E+05
258.028   4.8418E+05
258.072   7.4823E+05
258.117   6.1917E+05
258.161   5.9410E+05
258.204   9.0556E+05
258.248   8.4750E+05
258.292   8.1717E+05
258.336   4.7442E+05
258.380   6.3183E+05
258.423   8.4179E+05
258.467   8.2389E+05
258.510   4.4176E+05
258.554   4.2175E+05
258.597   5.9491E+05
258.640   4.4538E+05
258.683   1.1901E+06
258.726   4.6958E+05
258.770   6.9891E+05
258.815   6.2391E+05
258.859   6.8673E+05
258.903   3.8174E+05
258.948   7.0318E+05
258.992   7.3570E+05
259.036   9.2545E+05
259.080   8.0070E+05
259.124   7.1416E+05
259.168   5.9140E+05
259.212   5.8753E+05
259.256   5.0518E+05
259.300   7.6382E+05
259.343   7.4630E+05
259.387   5.3970E+05
259.430   4.4277E+05
259.474   4.4738E+05
259.517   4.9938E+05
259.560   6.7897E+05
259.604   7.5370E+05
259.647   6.7804E+05
259.692   6.4818E+05
259.737   6.0281E+05
259.781   7.2170E+05
259.826   6.2779E+05
259.870   5.1453E+05
259.914   8.9801E+05
259.958   5.9124E+05
260.002   7.1831E+05
260.047   1.2561E+06
260.091   4.1714E+05
260.135   4.9018E+05
260.178   7.0850E+05
260.222   7.3974E+05
260.266   7.8556E+05
260.310   8.5237E+05
260.353   6.3107E+05
260.397   8.8150E+05
260.440   6.0346E+05
260.484   5.2779E+05
260.528   8.8304E+05
260.573   5.6678E+05
260.618   5.9690E+05
260.662   4.8632E+05
260.707   5.7837E+05
260.751   4.2654E+05
260.796   9.4130E+05
260.840   5.6888E+05
260.885   6.5680E+05
260.929   6.1107E+05
260.973   6.5174E+05
261.017   6.4420E+05
261.061   6.6231E+05
261.105   7.9461E+05
261.149   6.2984E+05
261.193   6.5054E+05
261.236   4.5957E+05
261.280   1.3218E+06
261.324   4.9160E+05
261.367   5.0314E+05
261.412   6.0892E+05
261.457   7.1178E+05
261.501   6.2475E+05
261.546   5.8361E+05
261.591   7.4738E+05
261.636   7.2037E+05
261.680   7.2959E+05
261.725   6.9833E+05
261.769   8.7536E+05
261.814   6.9958E+05
261.858   1.1137E+06
261.902   4.7802E+05
261.946   6.2795E+05
261.990   8.2931E+05
262.034   8.7664E+05
262.078   8.0923E+05
262.122   1.2220E+06
262.166   7.9400E+05
262.210   9.3529E+05
262.253   9.5104E+05
262.298   7.0104E+05
262.343   9.7895E+05
262.388   7.0517E+05
262.433   5.1124E+05
262.477   8.0875E+05
262.522   9.3419E+05
262.567   9.1249E+05
262.612   7.7424E+05
262.656   1.8658E+06
262.701   7.8141E+05
262.745   6.6435E+05
262.790   7.7183E+05
262.834   8.3342E+05
262.878   7.2928E+05
262.922   1.0730E+06
262.967   6.5861E+05
263.011   8.6245E+05
263.055   6.7519E+05
263.099   6.8153E+05
263.142   7.2663E+05
263.187   1.0341E+06
263.232   1.2699E+06
263.278   7.0169E+05
263.323   5.4327E+05
263.368   5.0512E+05
263.413   9.2245E+05
263.458   8.3658E+05
263.502   9.7793E+05
263.547   1.0402E+06
263.592   1.0795E+06
263.637   8.5142E+05
263.681   6.7414E+05
263.726   1.1448E+06
263.770   1.0185E+06
263.814   1.2124E+06
263.859   1.4801E+06
263.903   1.7298E+06
263.947   1.7585E+06
263.991   1.4001E+06
264.035   1.3435E+06
264.080   1.2796E+06
264.125   1.0155E+06
264.170   1.2604E+06
264.215   9.9197E+05
264.261   9.4307E+05
264.306   1.3359E+06
264.351   1.9698E+06
264.396   1.7379E+06
264.441   1.8681E+06
264.486   1.0157E+06
264.530   1.1559E+06
264.575   1.2109E+06
264.620   9.7103E+05
264.664   1.2464E+06
264.709   9.3161E+05
264.753   1.0218E+06
264.798   1.3111E+06
264.842   8.0085E+05
264.886   1.0708E+06
264.930   7.6434E+05
264.975   8.7636E+05
265.020   9.4552E+05
265.065   9.6275E+05
265.111   1.3401E+06
265.156   9.7384E+05
265.202   9.8285E+05
265.247   1.1160E+06
265.292   9.4397E+05
265.337   9.3989E+05
265.382   1.4183E+06
265.427   1.2949E+06
265.472   1.3607E+06
265.517   1.1728E+06
265.561   1.9243E+06
265.606   1.8549E+06
265.651   1.4468E+06
265.695   1.1155E+06
265.740   1.5253E+06
265.784   1.2748E+06
265.829   1.1417E+06
265.873   1.7400E+06
265.918   1.2090E+06
265.963   1.2416E+06
266.009   1.5271E+06
266.054   1.4189E+06
266.100   1.4355E+06
266.145   8.3376E+05
266.191   1.6171E+06
266.236   8.3250E+05
266.281   8.0309E+05
266.326   1.3143E+06
266.371   1.7923E+06
266.416   1.2696E+06
266.461   8.1456E+05
266.506   9.7249E+05
266.551   1.5276E+06
266.596   1.9859E+06
266.640   1.5524E+06
266.685   1.2623E+06
266.730   9.7544E+05
266.774   6.1917E+05
266.818   1.4754E+06
266.864   1.7256E+06
266.910   1.0515E+06
266.955   1.6866E+06
267.001   1.4264E+06
267.047   6.5319E+05
267.092   1.1326E+06
267.138   1.5367E+06
267.183   1.3084E+06
267.228   1.8459E+06
267.274   1.0429E+06
267.319   8.3486E+05
267.364   8.6571E+05
267.409   9.4274E+05
267.454   1.2106E+06
267.499   1.4362E+06
267.544   1.8340E+06
267.589   1.7993E+06
267.633   1.3799E+06
267.678   1.3547E+06
267.722   1.7183E+06
267.767   1.4752E+06
267.813   8.9056E+05
267.859   1.5532E+06
267.905   1.0928E+06
267.951   1.1432E+06
267.996   6.4654E+05
268.042   1.2140E+06
268.088   1.1072E+06
268.133   9.6229E+05
268.179   1.3317E+06
268.224   1.5558E+06
268.269   1.1330E+06
268.315   1.2969E+06
268.360   1.4875E+06
268.405   1.0629E+06
268.450   1.4647E+06
268.495   8.2840E+05
268.540   1.5539E+06
268.585   9.6219E+05
268.629   1.4453E+06
268.674   1.4159E+06
268.720   1.5477E+06
268.767   1.4054E+06
268.813   1.2576E+06
268.859   1.2567E+06
268.905   1.0804E+06
268.950   1.3678E+06
268.996   1.0807E+06
269.042   9.6588E+05
269.088   5.9561E+05
269.133   1.2255E+06
269.179   1.0378E+06
269.224   1.1416E+06
269.269   1.5223E+06
269.315   1.6310E+06
269.360   1.0826E+06
269.405   1.7468E+06
269.450   1.5041E+06
269.495   1.5661E+06
269.540   1.0432E+06
269.585   1.1621E+06
269.631   6.5018E+05
269.677   7.3061E+05
269.723   7.0603E+05
269.769   1.5852E+06
269.815   1.1303E+06
269.862   1.6475E+06
269.907   1.0541E+06
269.953   1.0360E+06
269.999   1.0127E+06
270.045   1.4116E+06
270.091   1.9897E+06
270.136   2.1332E+06
270.182   1.3346E+06
270.227   1.6722E+06
270.273   9.5403E+05
270.318   1.3550E+06
270.363   1.5428E+06
270.409   1.8988E+06
270.454   1.2181E+06
270.499   1.1626E+06
270.544   1.7755E+06
270.590   2.0634E+06
270.636   1.4324E+06
270.683   1.0457E+06
270.729   1.0543E+06
270.775   8.9914E+05
270.822   1.3267E+06
270.868   1.5256E+06
270.914   1.5239E+06
270.960   9.3819E+05
271.006   1.6488E+06
271.052   1.7113E+06
271.097   1.2741E+06
271.143   1.0625E+06
271.189   1.8023E+06
271.234   9.7200E+05
271.280   1.2644E+06
271.325   1.5115E+06
271.370   2.0041E+06
271.416   1.6279E+06
271.461   1.4515E+06
271.506   1.0787E+06
271.553   1.0724E+06
271.599   1.2296E+06
271.646   7.8667E+05
271.692   1.2799E+06
271.739   1.1538E+06
271.785   1.3386E+06
271.831   9.3863E+05
271.877   8.5336E+05
271.924   6.2579E+05
271.970   4.3038E+05
272.016   2.7674E+05
272.062   6.2861E+05
272.107   6.5388E+05
272.153   4.8233E+05
272.199   3.2514E+05
272.244   7.3171E+05
272.290   8.5107E+05
272.335   9.0277E+05
272.381   9.6046E+05
272.426   6.3822E+05
272.472   4.9161E+05
272.518   8.6382E+05
272.565   1.0769E+06
272.612   7.7269E+05
272.659   1.2283E+06
272.705   7.2458E+05
272.752   1.0205E+06
272.798   1.5831E+06
272.844   8.6637E+05
272.891   1.1210E+06
272.937   1.6640E+06
272.983   1.0700E+06
273.029   2.1399E+06
273.075   2.0764E+06
273.121   1.4333E+06
273.167   1.2656E+06
273.213   1.1358E+06
273.258   1.7346E+06
273.304   1.0241E+06
273.349   2.0189E+06
273.395   1.0578E+06
273.441   4.4402E+05
273.488   7.3323E+05
273.534   9.6794E+05
273.581   1.0223E+06
273.628   7.3308E+05
273.675   1.0684E+06
273.721   1.1404E+06
273.768   6.3805E+05
273.814   4.5401E+05
273.861   6.1050E+05
273.907   1.0936E+06
273.954   1.3095E+06
274.000   1.2333E+06
274.046   9.7143E+05
274.092   1.0330E+06
274.138   1.3484E+06
274.184   1.0078E+06
274.230   1.0329E+06
274.276   8.7600E+05
274.321   3.5493E+05
274.367   6.1727E+05
274.413   8.2616E+05
274.460   7.0099E+05
274.507   5.6002E+05
274.554   8.4367E+05
274.601   1.1871E+06
274.648   1.5642E+06
274.695   1.0218E+06
274.741   9.1672E+05
274.788   7.9114E+05
274.835   1.0965E+06
274.881   1.4999E+06
274.928   1.1522E+06
274.974   1.1424E+06
275.020   8.9046E+05
275.066   7.2854E+05
275.113   3.8613E+05
275.159   7.1486E+05
275.205   1.0433E+06
275.251   1.4237E+06
275.296   1.2385E+06
275.342   1.9174E+06
275.388   1.4035E+06
275.435   1.2737E+06
275.483   6.4420E+05
275.530   1.1818E+06
275.577   1.2220E+06
275.624   1.0399E+06
275.671   1.1476E+06
275.718   4.9872E+05
275.765   9.7544E+05
275.811   8.3029E+05
275.858   9.5014E+05
275.905   1.8403E+06
275.951   2.2971E+06
275.998   1.8508E+06
276.044   1.9010E+06
276.090   1.3697E+06
276.137   1.9690E+06
276.183   1.6420E+06
276.229   1.6307E+06
276.275   9.7101E+05
276.321   1.2114E+06
276.367   8.1758E+05
276.413   1.4003E+06
276.461   1.8470E+06
276.508   1.0512E+06
276.555   2.1296E+06
276.603   2.1093E+06
276.650   2.0252E+06
276.697   1.9979E+06
276.744   1.0967E+06
276.791   1.6294E+06
276.838   1.1052E+06
276.884   1.6373E+06
276.931   1.2691E+06
276.978   1.6411E+06
277.024   1.5720E+06
277.071   1.2352E+06
277.117   2.1870E+06
277.164   1.4358E+06
277.210   2.3526E+06
277.256   1.7721E+06
277.302   6.3534E+05
277.348   1.2419E+06
277.394   1.9718E+06
277.442   1.8789E+06
277.490   1.8476E+06
277.537   2.1645E+06
277.584   1.4353E+06
277.632   1.9086E+06
277.679   1.7351E+06
277.726   1.2358E+06
277.773   8.8786E+05
277.820   2.1034E+06
277.867   1.6154E+06
277.914   6.3275E+05
277.961   1.2055E+06
278.008   1.4303E+06
278.054   1.0955E+06
278.101   9.4859E+05
278.148   1.2194E+06
278.194   1.1968E+06
278.240   7.7957E+05
278.287   1.1922E+06
278.333   1.6444E+06
278.379   1.0006E+06
278.427   1.1556E+06
278.475   1.2822E+06
278.522   1.5588E+06
278.570   1.5742E+06
278.617   1.4871E+06
278.665   1.5705E+06
278.712   1.4525E+06
278.759   1.4195E+06
278.807   1.4147E+06
278.854   1.3251E+06
278.901   5.9937E+05
278.948   1.2299E+06
278.995   1.2937E+06
279.042   1.1183E+06
279.088   9.9752E+05
279.135   1.2022E+06
279.182   1.0802E+06
279.228   9.9689E+05
279.275   9.0441E+05
279.321   8.3791E+05
279.368   8.2027E+05
279.415   7.5617E+05
279.463   6.7693E+05
279.511   5.5742E+05
279.559   4.1152E+05
279.606   2.8572E+06
279.654   1.7012E+07
279.701   1.5175E+06
279.749   5.2890E+05
279.796   6.0881E+05
279.844   6.8708E+05
279.891   7.4862E+05
279.938   5.0458E+05
279.985   7.9887E+05
280.032   8.3444E+05
280.079   8.5456E+05
280.126   7.9274E+05
280.173   7.2973E+05
280.220   5.3535E+05
280.266   6.2933E+05
280.313   7.4562E+05
280.360   1.2603E+07
280.407   3.9276E+06
280.455   5.6598E+05
280.503   6.9895E+05
280.551   6.9900E+05
280.599   7.7412E+05
280.647   9.3664E+05
280.694   9.4158E+05
280.742   1.1051E+06
280.790   8.9489E+05
280.837   1.1091E+06
280.885   1.2624E+06
280.932   1.2979E+06
280.979   1.3877E+06
281.027   1.5490E+06
281.074   1.6944E+06
281.121   1.3900E+06
281.168   1.6651E+06
281.215   1.2831E+06
281.262   1.3314E+06
281.309   1.2663E+06
281.355   1.5112E+06
281.402   9.9089E+05
281.449   1.0337E+06
281.497   1.6781E+06
281.545   2.0036E+06
281.594   2.1839E+06
281.642   1.6972E+06
281.690   1.9856E+06
281.737   1.9075E+06
281.785   1.8133E+06
281.833   1.4391E+06
281.881   1.4175E+06
281.928   2.2676E+06
281.976   1.6190E+06
283.000   2.4474E+06
283.500   2.2993E+06
284.000   2.2916E+06
284.500   1.7931E+06
285.000   8.4549E+05
285.500   9.8252E+05
286.000   2.1450E+06
286.500   2.5555E+06
287.000   2.6959E+06
287.500   2.6990E+06
288.000   1.7870E+06
288.500   2.5601E+06
289.000   2.9968E+06
289.500   3.5045E+06
290.000   4.4072E+06
290.500   4.6094E+06
291.000   4.3501E+06
291.500   4.2961E+06
292.000   4.0878E+06
292.500   3.5431E+06
293.000   4.0477E+06
293.500   4.1094E+06
294.000   3.5955E+06
294.500   3.8779E+06
295.000   3.6820E+06
295.500   4.1542E+06
296.000   4.4304E+06
296.500   3.5153E+06
297.000   3.0261E+06
297.500   4.2637E+06
298.000   3.9798E+06
298.500   2.7036E+06
299.000   4.1156E+06
299.500   3.7205E+06
300.000   2.9721E+06
300.500   3.1326E+06
301.000   3.5246E+06
301.500   3.7776E+06
302.000   2.6712E+06
302.500   3.8795E+06
303.000   4.8285E+06
303.500   4.9134E+06
304.000   4.1171E+06
304.500   4.6248E+06
305.000   4.8007E+06
305.500   4.3702E+06
306.000   3.8687E+06
306.500   4.1789E+06
307.000   4.5970E+06
307.500   4.6480E+06
308.000   4.6835E+06
308.500   4.8532E+06
309.000   4.0091E+06
309.500   3.6619E+06
310.000   3.3162E+06
310.500   5.0970E+06
311.000   5.8763E+06
311.500   5.4535E+06
312.000   4.5785E+06
312.500   4.9705E+06
313.000   5.0739E+06
313.500   5.1742E+06
314.000   5.6587E+06
314.500   4.2298E+06
315.000   5.3779E+06
315.500   4.8517E+06
316.000   3.6958E+06
316.500   4.7298E+06
317.000   5.8686E+06
317.500   6.2775E+06
318.000   4.5245E+06
318.500   4.8656E+06
319.000   5.3732E+06
319.500   4.8733E+06
320.000   5.9674E+06
320.500   6.4766E+06
321.000   5.1032E+06
321.500   4.8162E+06
322.000   5.8130E+06
322.500   5.0044E+06
323.000   4.5662E+06
323.500   4.8733E+06
324.000   5.5739E+06
324.500   5.8964E+06
325.000   5.5939E+06
325.500   6.7158E+06
326.000   7.5059E+06
326.500   7.1124E+06
327.000   7.1988E+06
327.500   7.1062E+06
328.000   6.7991E+06
328.500   6.5167E+06
329.000   7.3068E+06
329.500   8.1278E+06
330.000   8.2913E+06
330.500   6.9395E+06
331.000   7.1710E+06
331.500   7.0028E+06
332.000   7.1787E+06
332.500   6.9365E+06
333.000   6.9858E+06
333.500   6.5383E+06
334.000   6.7189E+06
334.500   7.4210E+06
335.000   6.8053E+06
335.500   7.6494E+06
336.000   5.2776E+06
336.500   6.4565E+06
337.000   5.3702E+06
337.500   6.7019E+06
338.000   6.3254E+06
338.500   7.0661E+06
339.000   6.9982E+06
339.500   6.6926E+06
340.000   8.0846E+06
340.500   7.2497E+06
341.000   6.8778E+06
341.500   6.3362E+06
342.000   7.5630E+06
342.500   7.0661E+06
343.000   7.7343E+06
343.500   7.2559E+06
344.000   5.4689E+06
344.500   5.3624E+06
345.000   7.1216E+06
345.500   7.2636E+06
346.000   6.1649E+06
346.500   6.9689E+06
347.000   7.4488E+06
347.500   6.0044E+06
348.000   6.8485E+06
348.500   6.8439E+06
349.000   6.3331E+06
349.500   6.2513E+06
350.000   7.7127E+06
350.500   8.1201E+06
351.000   7.2358E+06
351.500   6.9982E+06
352.000   7.5136E+06
352.500   5.8578E+06
353.000   7.3639E+06
353.500   7.8639E+06
354.000   8.1555E+06
354.500   8.2620E+06
355.000   8.2204E+06
355.500   7.4071E+06
356.000   7.7343E+06
356.500   6.5970E+06
357.000   5.4473E+06
357.500   6.6633E+06
358.000   5.2745E+06
358.500   4.5014E+06
359.000   6.2899E+06
359.500   8.0059E+06
360.000   8.4765E+06
360.500   6.7667E+06
361.000   6.1556E+06
361.500   7.0615E+06
362.000   6.0831E+06
362.500   8.3917E+06
363.000   7.5136E+06
363.500   6.9010E+06
364.000   8.4194E+06
364.500   7.1849E+06
365.000   7.3068E+06
365.500   9.1540E+06
366.000   9.6756E+06
366.500   9.0691E+06
367.000   8.8191E+06
367.500   9.1401E+06
368.000   7.9843E+06
368.500   8.0414E+06
369.000   8.6694E+06
369.500   9.2265E+06
370.000   9.8175E+06
370.500   7.6062E+06
371.000   8.1123E+06
371.500   1.0140E+07
372.000   6.7235E+06
372.500   8.0491E+06
373.000   8.1694E+06
373.500   5.3054E+06
374.000   7.6988E+06
374.500   6.3640E+06
375.000   6.1788E+06
375.500   9.2188E+06
376.000   7.6355E+06
376.500   7.9056E+06
377.000   8.3562E+06
377.500   9.7604E+06
378.000   1.0575E+07
378.500   9.9888E+06
379.000   8.2420E+06
379.500   7.5275E+06
380.000   7.8207E+06
380.500   9.4549E+06
381.000   9.4549E+06
381.500   7.4781E+06
382.000   6.6278E+06
382.500   5.6356E+06
383.000   5.2081E+06
383.500   5.0091E+06
384.000   5.5183E+06
384.500   8.1062E+06
385.000   8.0275E+06
385.500   7.4642E+06
386.000   6.3840E+06
386.500   8.3700E+06
387.000   6.9503E+06
387.500   7.7991E+06
388.000   7.1926E+06
388.500   7.0985E+06
389.000   7.6556E+06
389.500   9.2620E+06
390.000   9.2836E+06
390.500   8.5336E+06
391.000   1.0032E+07
391.500   1.0225E+07
392.000   8.6046E+06
392.500   7.6926E+06
393.000   4.2730E+06
393.500   3.1017E+06
394.000   6.3053E+06
394.500   8.0059E+06
395.000   9.7604E+06
395.500   9.9117E+06
396.000   8.5845E+06
396.500   5.0091E+06
397.000   3.7545E+06
397.500   7.6278E+06
398.000   1.0682E+07
398.500   1.1032E+07
399.000   1.1916E+07
399.500   1.1867E+07
400.000   1.2322E+07
401.000   1.2623E+07
402.000   1.3279E+07
403.000   1.2580E+07
404.000   1.2365E+07
405.000   1.2344E+07
406.000   1.2109E+07
407.000   1.1881E+07
408.000   1.2337E+07
409.000   1.3179E+07
410.000   1.1487E+07
411.000   1.2416E+07
412.000   1.3293E+07
413.000   1.2958E+07
414.000   1.3086E+07
415.000   1.3086E+07
416.000   1.3279E+07
417.000   1.2936E+07
418.000   1.2680E+07
419.000   1.2822E+07
420.000   1.2751E+07
421.000   1.3314E+07
422.000   1.2637E+07
423.000   1.2322E+07
424.000   1.3023E+07
425.000   1.2972E+07
426.000   1.2594E+07
427.000   1.2344E+07
428.000   1.2017E+07
429.000   1.1345E+07
430.000   9.9117E+06
431.000   9.8252E+06
432.000   1.2651E+07
433.000   1.2702E+07
434.000   1.1788E+07
435.000   1.2308E+07
436.000   1.3828E+07
437.000   1.3600E+07
438.000   1.2359E+07
439.000   1.2808E+07
440.000   1.3186E+07
441.000   1.3629E+07
442.000   1.4598E+07
443.000   1.4236E+07
444.000   1.4513E+07
445.000   1.4206E+07
446.000   1.3515E+07
447.000   1.4570E+07
448.000   1.4820E+07
449.000   1.4820E+07
450.000   1.5205E+07
451.000   1.5756E+07
452.000   1.5163E+07
453.000   1.4242E+07
454.000   1.4834E+07
455.000   1.4921E+07
456.000   1.5256E+07
457.000   1.5493E+07
458.000   1.4984E+07
459.000   1.4884E+07
460.000   1.4927E+07
461.000   1.5256E+07
462.000   1.5340E+07
463.000   1.5242E+07
464.000   1.4948E+07
465.000   1.4720E+07
466.000   1.4834E+07
467.000   1.4578E+07
468.000   1.4742E+07
469.000   1.4813E+07
470.000   1.4342E+07
471.000   1.4314E+07
472.000   1.5084E+07
473.000   1.4891E+07
474.000   1.4941E+07
475.000   1.5098E+07
476.000   1.4685E+07
477.000   1.4749E+07
478.000   1.5134E+07
479.000   1.5006E+07
480.000   1.4998E+07
481.000   1.5234E+07
482.000   1.5269E+07
483.000   1.5041E+07
484.000   1.4712E+07
485.000   1.3999E+07
486.000   1.2216E+07
487.000   1.2779E+07
488.000   1.4021E+07
489.000   1.4078E+07
490.000   1.4785E+07
491.000   1.4506E+07
492.000   1.3692E+07
493.000   1.4135E+07
494.000   1.4271E+07
495.000   1.4385E+07
496.000   1.4470E+07
497.000   1.4692E+07
498.000   1.3999E+07
499.000   1.4185E+07
500.000   1.3785E+07
501.000   1.3550E+07
502.000   1.3401E+07
503.000   1.3992E+07
504.000   1.3793E+07
505.000   1.4149E+07
506.000   1.4614E+07
507.000   1.3899E+07
508.000   1.3422E+07
509.000   1.3763E+07
510.000   1.3665E+07
511.000   1.3999E+07
512.000   1.4135E+07
513.000   1.3371E+07
514.000   1.3265E+07
515.000   1.3129E+07
516.000   1.3100E+07
517.000   1.1631E+07
518.000   1.2229E+07
519.000   1.2830E+07
520.000   1.3300E+07
521.000   1.3428E+07
522.000   1.3450E+07
523.000   1.3214E+07
524.000   1.3706E+07
525.000   1.3899E+07
526.000   1.3287E+07
527.000   1.2544E+07
528.000   1.3287E+07
529.000   1.4021E+07
530.000   1.3828E+07
531.000   1.4043E+07
532.000   1.3564E+07
533.000   1.3165E+07
534.000   1.3543E+07
535.000   1.3820E+07
536.000   1.3935E+07
537.000   1.3371E+07
538.000   1.3600E+07
539.000   1.3486E+07
540.000   1.2936E+07
541.000   1.3064E+07
542.000   1.3493E+07
543.000   1.3314E+07
544.000   1.3578E+07
545.000   1.3529E+07
546.000   1.3621E+07
547.000   1.3586E+07
548.000   1.3407E+07
549.000   1.3436E+07
550.000   1.3592E+07
551.000   1.3422E+07
552.000   1.3515E+07
553.000   1.3279E+07
554.000   1.3600E+07
555.000   1.3635E+07
556.000   1.3464E+07
557.000   1.3058E+07
558.000   1.2979E+07
559.000   1.2759E+07
560.000   1.2929E+07
561.000   1.3115E+07
562.000   1.3043E+07
563.000   1.3428E+07
564.000   1.3086E+07
565.000   1.2993E+07
566.000   1.2822E+07
567.000   1.3094E+07
568.000   1.3050E+07
569.000   1.2893E+07
570.000   1.2865E+07
571.000   1.2743E+07
572.000   1.3151E+07
573.000   1.3308E+07
574.000   1.3287E+07
575.000   1.3072E+07
576.000   1.2950E+07
577.000   1.3080E+07
578.000   1.2844E+07
579.000   1.2830E+07
580.000   1.2972E+07
581.000   1.2966E+07
582.000   1.3143E+07
583.000   1.3121E+07
584.000   1.3200E+07
585.000   1.2858E+07
586.000   1.2594E+07
587.000   1.2915E+07
588.000   1.2794E+07
589.000   1.1745E+07
590.000   1.2245E+07
591.000   1.2716E+07
592.000   1.2702E+07
593.000   1.2729E+07
594.000   1.2708E+07
595.000   1.2501E+07
596.000   1.2694E+07
597.000   1.2608E+07
598.000   1.2493E+07
599.000   1.2458E+07
600.000   1.2395E+07
601.000   1.2237E+07
602.000   1.2145E+07
603.000   1.2322E+07
604.000   1.2515E+07
605.000   1.2436E+07
606.000   1.2359E+07
607.000   1.2452E+07
608.000   1.2287E+07
609.000   1.2287E+07
610.000   1.2172E+07
611.000   1.2223E+07
612.000   1.2172E+07
613.000   1.2009E+07
614.000   1.1824E+07
615.000   1.2058E+07
616.000   1.1645E+07
617.000   1.1609E+07
618.000   1.2044E+07
619.000   1.1916E+07
620.000   1.1995E+07
621.000   1.2030E+07
622.000   1.1916E+07
623.000   1.1759E+07
624.000   1.1538E+07
625.000   1.1509E+07
626.000   1.1688E+07
627.000   1.1881E+07
628.000   1.1867E+07
629.000   1.1867E+07
630.000   1.1617E+07
631.000   1.1623E+07
632.000   1.1446E+07
633.000   1.1688E+07
634.000   1.1495E+07
635.000   1.1638E+07
636.000   1.1438E+07
637.000   1.1595E+07
638.000   1.1652E+07
639.000   1.1495E+07
640.000   1.1353E+07
641.000   1.1324E+07
642.000   1.1245E+07
643.000   1.1395E+07
644.000   1.1331E+07
645.000   1.1367E+07
646.000   1.1196E+07
647.000   1.1253E+07
648.000   1.1353E+07
649.000   1.1131E+07
650.000   1.0910E+07
651.000   1.1316E+07
652.000   1.1188E+07
653.000   1.1174E+07
654.000   1.1010E+07
655.000   1.0767E+07
656.000   9.4256E+06
657.000   9.6756E+06
658.000   1.0767E+07
659.000   1.0796E+07
660.000   1.0824E+07
661.000   1.0896E+07
662.000   1.0967E+07
663.000   1.0731E+07
664.000   1.0788E+07
665.000   1.0746E+07
666.000   1.0731E+07
667.000   1.0696E+07
668.000   1.0674E+07
669.000   1.0824E+07
670.000   1.0767E+07
671.000   1.0753E+07
672.000   1.0652E+07
673.000   1.0804E+07
674.000   1.0753E+07
675.000   1.0646E+07
676.000   1.0709E+07
677.000   1.0595E+07
678.000   1.0617E+07
679.000   1.0439E+07
680.000   1.0518E+07
681.000   1.0446E+07
682.000   1.0432E+07
683.000   1.0410E+07
684.000   1.0361E+07
685.000   1.0439E+07
686.000   1.0388E+07
687.000   1.0518E+07
688.000   1.0396E+07
689.000   1.0375E+07
690.000   1.0304E+07
691.000   1.0225E+07
692.000   1.0132E+07
693.000   1.0146E+07
694.000   1.0176E+07
695.000   1.0176E+07
696.000   1.0260E+07
697.000   1.0217E+07
698.000   1.0075E+07
699.000   1.0211E+07
700.000   1.0083E+07
701.000   1.0061E+07
702.000   1.0004E+07
703.000   1.0046E+07
704.000   1.0146E+07
705.000   1.0160E+07
706.000   1.0061E+07
707.000   1.0040E+07
708.000   1.0061E+07
709.000   9.9610E+06
710.000   1.0010E+07
711.000   9.9610E+06
712.000   9.8823E+06
713.000   9.8252E+06
714.000   9.8607E+06
715.000   9.6756E+06
716.000   9.7249E+06
717.000   9.8607E+06
718.000   9.7033E+06
719.000   9.5259E+06
720.000   9.7110E+06
721.000   9.6046E+06
722.000   9.5969E+06
723.000   9.6833E+06
724.000   9.6046E+06
725.000   9.5398E+06
726.000   9.5536E+06
727.000   9.6185E+06
728.000   9.4472E+06
729.000   9.2543E+06
730.000   9.4827E+06
731.000   9.4117E+06
732.000   9.4333E+06
733.000   9.4040E+06
734.000   9.5043E+06
735.000   9.3685E+06
736.000   9.3253E+06
737.000   9.3978E+06
738.000   9.2404E+06
739.000   9.0830E+06
740.000   9.2188E+06
741.000   9.0691E+06
742.000   9.0259E+06
743.000   9.2404E+06
744.000   9.1833E+06
745.000   9.1617E+06
746.000   9.2049E+06
747.000   9.2188E+06
748.000   9.1972E+06
749.000   9.0907E+06
750.000   9.0830E+06
751.000   8.9904E+06
752.000   9.0259E+06
753.000   9.0691E+06
754.000   9.0907E+06
755.000   9.0398E+06
756.000   9.0336E+06
757.000   9.0475E+06
758.000   8.9410E+06
759.000   8.9117E+06
760.000   8.9117E+06
761.000   8.8839E+06
762.000   8.7265E+06
763.000   8.8901E+06
764.000   8.8407E+06
765.000   8.7481E+06
766.000   8.3917E+06
767.000   8.6771E+06
768.000   8.7126E+06
769.000   8.6262E+06
770.000   8.6262E+06
771.000   8.5691E+06
772.000   8.5475E+06
773.000   8.5984E+06
774.000   8.5475E+06
775.000   8.4765E+06
776.000   8.5768E+06
777.000   8.4626E+06
778.000   8.4133E+06
779.000   8.4194E+06
780.000   8.3700E+06
781.000   8.3762E+06
782.000   8.4271E+06
783.000   8.2775E+06
784.000   8.3130E+06
785.000   8.2620E+06
786.000   8.3623E+06
787.000   8.3268E+06
788.000   8.2836E+06
789.000   8.3268E+06
790.000   8.3130E+06
791.000   8.1988E+06
792.000   8.1201E+06
793.000   8.0136E+06
794.000   7.9210E+06
795.000   8.1062E+06
796.000   8.1339E+06
797.000   8.1278E+06
798.000   8.1201E+06
799.000   8.1278E+06
800.000   8.0552E+06